* Measurement data measured by REW V5.20 Beta 59
* Source: C:\Users\ahngu\OneDrive\Headphones\House Curves\torankutargetv5.txt
* Format: Comma/Tab/Space delimited data
* Dated: May 18, 2020 9:21:22 PM
* REW Settings:
*  C-weighting compensation: Off
*  Target level: 75.0 dB
* Note: 
* Measurement: torankutargetv5
* Smoothing: 1/48 octave
* Frequency Step: 1/24 octave
* Start Frequency: 20.000 Hz
*
* Freq(Hz)	SPL(dB)	Phase(degrees)
20.000000	81.000221	0
20.600000	81.002487	0
21.200001	81.004921	0
21.799999	81.007248	0
22.400000	81.009415	0
23.000000	81.011360	0
23.600000	81.013039	0
24.299999	81.014580	0
25.000000	81.015594	0
25.799999	81.015999	0
26.500000	81.015594	0
27.200001	81.014397	0
28.000000	81.011940	0
29.000000	81.007057	0
30.000000	81.000443	0
30.700001	80.997757	0
31.500000	80.993500	0
32.500000	80.985054	0
33.500000	80.972557	0
34.500000	80.955383	0
35.500000	80.932907	0
36.500000	80.904510	0
37.500000	80.869568	0
38.700001	80.818138	0
40.000000	80.746819	0
41.200001	80.650085	0
42.500000	80.539856	0
43.700001	80.436516	0
45.000000	80.323097	0
46.200001	80.217308	0
47.500000	80.101791	0
48.700001	79.994560	0
50.000000	79.878029	0
51.500000	79.743462	0
53.000000	79.609200	0
54.500000	79.475708	0
56.000000	79.343422	0
58.000000	79.169716	0
60.000000	79.000031	0
61.500000	78.876053	0
63.000000	78.755386	0
65.000000	78.603233	0
67.000000	78.477806	0
69.000000	78.356819	0
71.000000	78.237175	0
73.000000	78.118866	0
75.000000	78.001884	0
77.500000	77.857529	0
80.000000	77.715248	0
82.500000	77.575027	0
85.000000	77.436867	0
87.500000	77.300751	0
90.000000	77.166679	0
92.500000	77.034637	0
95.000000	76.904625	0
97.500000	76.776642	0
100.000000	76.650673	0
103.000000	76.502151	0
106.000000	76.356522	0
109.000000	76.213760	0
112.000000	76.073845	0
115.000000	75.936783	0
118.000000	75.802551	0
122.000000	75.627968	0
125.000000	75.501839	0
128.000000	75.390961	0
132.000000	75.267776	0
136.000000	75.169975	0
140.000000	75.095711	0
145.000000	75.033150	0
150.000000	75.000145	0
155.000000	74.981201	0
160.000000	74.968193	0
165.000000	74.960518	0
170.000000	74.957504	0
175.000000	74.958488	0
180.000000	74.962799	0
185.000000	74.969780	0
190.000000	74.978745	0
195.000000	74.989044	0
200.000000	74.998520	0
206.000000	75.000000	0
212.000000	75.000000	0
218.000000	75.000000	0
224.000000	75.000000	0
230.000000	75.000000	0
236.000000	75.000000	0
243.000000	75.000000	0
250.000000	75.000000	0
258.000000	75.000000	0
265.000000	75.000000	0
272.000000	75.000000	0
280.000000	75.000000	0
290.000000	75.000000	0
300.000000	75.000000	0
307.000000	75.000000	0
315.000000	75.000000	0
325.000000	75.000000	0
335.000000	75.000000	0
345.000000	75.000000	0
355.000000	75.000000	0
365.000000	75.000000	0
375.000000	75.000000	0
387.000000	75.000000	0
400.000000	75.000000	0
412.000000	75.000000	0
425.000000	75.000000	0
437.000000	75.000000	0
450.000000	75.000000	0
462.000000	75.000000	0
475.000000	75.000000	0
487.000000	75.000000	0
500.000000	75.000000	0
515.000000	75.000000	0
530.000000	75.000000	0
545.000000	75.000000	0
560.000000	75.000000	0
580.000000	75.000000	0
600.000000	75.000000	0
615.000000	75.000000	0
630.000000	75.000000	0
650.000000	75.000000	0
670.000000	75.000000	0
690.000000	75.000000	0
710.000000	75.000000	0
730.000000	75.000000	0
750.000000	75.000000	0
775.000000	75.000000	0
800.000000	75.000000	0
825.000000	75.000000	0
850.000000	75.000000	0
875.000000	75.000000	0
900.000000	74.996101	0
925.000000	74.966980	0
950.000000	74.947472	0
975.000000	74.954895	0
1000.000000	75.006226	0
1030.000000	75.134277	0
1060.000000	75.268585	0
1090.000000	75.403175	0
1120.000000	75.538033	0
1150.000000	75.673149	0
1180.000000	75.808517	0
1220.000000	75.989380	0
1250.000000	76.125290	0
1280.000000	76.261406	0
1320.000000	76.443222	0
1360.000000	76.625366	0
1400.000000	76.807823	0
1450.000000	77.036285	0
1500.000000	77.265152	0
1550.000000	77.494370	0
1600.000000	77.723877	0
1650.000000	77.953644	0
1700.000000	78.183601	0
1750.000000	78.413719	0
1800.000000	78.643929	0
1850.000000	78.874199	0
1900.000000	79.104469	0
1950.000000	79.334694	0
2000.000000	79.564827	0
2060.000000	79.840790	0
2120.000000	80.116463	0
2180.000000	80.391754	0
2240.000000	80.666588	0
2300.000000	80.940872	0
2360.000000	81.214523	0
2430.000000	81.532875	0
2500.000000	81.850113	0
2580.000000	82.209770	0
2650.000000	82.465218	0
2720.000000	82.641006	0
2800.000000	82.788582	0
2900.000000	82.919052	0
3000.000000	82.993797	0
3070.000000	82.973068	0
3150.000000	82.940269	0
3250.000000	82.896294	0
3350.000000	82.849380	0
3450.000000	82.799927	0
3550.000000	82.748322	0
3650.000000	82.694954	0
3750.000000	82.640221	0
3870.000000	82.573288	0
4000.000000	82.489433	0
4120.000000	82.322060	0
4250.000000	82.128433	0
4370.000000	81.948952	0
4500.000000	81.753731	0
4620.000000	81.572823	0
4750.000000	81.376083	0
4870.000000	81.193802	0
5000.000000	80.995613	0
5150.000000	80.766037	0
5300.000000	80.535515	0
5450.000000	80.304092	0
5600.000000	80.071793	0
5800.000000	79.760735	0
6000.000000	79.448235	0
6150.000000	79.212959	0
6300.000000	78.976936	0
6500.000000	78.661133	0
6700.000000	78.344124	0
6900.000000	78.025986	0
7100.000000	77.706779	0
7300.000000	77.386581	0
7500.000000	77.065453	0
7750.000000	76.662849	0
8000.000000	76.259033	0
8250.000000	75.854149	0
8500.000000	75.448326	0
8750.000000	75.041695	0
9000.000000	74.634399	0
9250.000000	74.226570	0
9500.000000	73.818336	0
9750.000000	73.409866	0
10000.000000	73.069778	0
