* Measurement data measured by REW V5.20
* Source: C:\Users\ahngu\Desktop\oratory1990.txt
* Format: Comma/Tab/Space delimited data
* Dated: May 9, 2021 12:47:43 PM
* REW Settings:
*  C-weighting compensation: Off
*  Target level: 75.0 dB
* Note: ; Measurement imported from C:\Users\ahngu\Desktop\oratory1990.txt Format: Comma/Tab/Space delimited data 695 values loaded, 20 Hz to 19,896 Hz log spaced 
* Measurement: oratory1990
* Smoothing: 1/48 octave
* Frequency Step: 1/24 octave
* Start Frequency: 20.000 Hz
*
* Freq(Hz)	SPL(dB)	Phase(degrees)
20.000000	68.000000	0
20.600000	67.990639	0
21.200001	67.990242	0
21.799999	67.973076	0
22.400000	67.965874	0
23.000000	67.960320	0
23.600000	67.950264	0
24.299999	67.939323	0
25.000000	67.950020	0
25.799999	67.949997	0
26.500000	67.952591	0
27.200001	67.960236	0
28.000000	67.969879	0
29.000000	67.980003	0
30.000000	67.979935	0
30.700001	67.989578	0
31.500000	67.989998	0
32.500000	67.997566	0
33.500000	67.992035	0
34.500000	67.982330	0
35.500000	67.973465	0
36.500000	67.965599	0
37.500000	67.958412	0
38.700001	67.939804	0
40.000000	67.949883	0
41.200001	67.959991	0
42.500000	67.967255	0
43.700001	67.975243	0
45.000000	67.969780	0
46.200001	67.948509	0
47.500000	67.920639	0
48.700001	67.895615	0
50.000000	67.870132	0
51.500000	67.849426	0
53.000000	67.820580	0
54.500000	67.791878	0
56.000000	67.775238	0
58.000000	67.739639	0
60.000000	67.708900	0
61.500000	67.690887	0
63.000000	67.654106	0
65.000000	67.601730	0
67.000000	67.539322	0
69.000000	67.490143	0
71.000000	67.443459	0
73.000000	67.376434	0
75.000000	67.303268	0
77.500000	67.215813	0
80.000000	67.130844	0
82.500000	67.048340	0
85.000000	66.940125	0
87.500000	66.801651	0
90.000000	66.652237	0
92.500000	66.514359	0
95.000000	66.380516	0
97.500000	66.249794	0
100.000000	66.122627	0
103.000000	65.967506	0
106.000000	65.810005	0
109.000000	65.659164	0
112.000000	65.521423	0
115.000000	65.380783	0
118.000000	65.217735	0
122.000000	64.996056	0
125.000000	64.840179	0
128.000000	64.680626	0
132.000000	64.480728	0
136.000000	64.279404	0
140.000000	64.039413	0
145.000000	63.752895	0
150.000000	63.475418	0
155.000000	63.206627	0
160.000000	62.951584	0
165.000000	62.694103	0
170.000000	62.452621	0
175.000000	62.211029	0
180.000000	61.984592	0
185.000000	61.758656	0
190.000000	61.569557	0
195.000000	61.379776	0
200.000000	61.197308	0
206.000000	60.984276	0
212.000000	60.771519	0
218.000000	60.575966	0
224.000000	60.411896	0
230.000000	60.262688	0
236.000000	60.108322	0
243.000000	59.941307	0
250.000000	59.769394	0
258.000000	59.620159	0
265.000000	59.532139	0
272.000000	59.440140	0
280.000000	59.340691	0
290.000000	59.217007	0
300.000000	59.105114	0
307.000000	59.051105	0
315.000000	58.988956	0
325.000000	58.905647	0
335.000000	58.832947	0
345.000000	58.757874	0
355.000000	58.720318	0
365.000000	58.701450	0
375.000000	58.684193	0
387.000000	58.663052	0
400.000000	58.639183	0
412.000000	58.630001	0
425.000000	58.630001	0
437.000000	58.629784	0
450.000000	58.620003	0
462.000000	58.619999	0
475.000000	58.623703	0
487.000000	58.638157	0
500.000000	58.654415	0
515.000000	58.674831	0
530.000000	58.694077	0
545.000000	58.711853	0
560.000000	58.728355	0
580.000000	58.760220	0
600.000000	58.788189	0
615.000000	58.802467	0
630.000000	58.827156	0
650.000000	58.848003	0
670.000000	58.926743	0
690.000000	59.005791	0
710.000000	59.071568	0
730.000000	59.146282	0
750.000000	59.214893	0
775.000000	59.306808	0
800.000000	59.391815	0
825.000000	59.476631	0
850.000000	59.564743	0
875.000000	59.641350	0
900.000000	59.721558	0
925.000000	59.796524	0
950.000000	59.869217	0
975.000000	59.932518	0
1000.000000	59.994572	0
1030.000000	60.073566	0
1060.000000	60.159897	0
1090.000000	60.235046	0
1120.000000	60.306309	0
1150.000000	60.384346	0
1180.000000	60.453625	0
1220.000000	60.565376	0
1250.000000	60.663109	0
1280.000000	60.748821	0
1320.000000	60.871315	0
1360.000000	60.982224	0
1400.000000	61.118622	0
1450.000000	61.379333	0
1500.000000	61.622810	0
1550.000000	61.873859	0
1600.000000	62.105083	0
1650.000000	62.426846	0
1700.000000	62.788254	0
1750.000000	63.127281	0
1800.000000	63.465096	0
1850.000000	63.797226	0
1900.000000	64.075798	0
1950.000000	64.326172	0
2000.000000	64.581306	0
2060.000000	64.876282	0
2120.000000	65.156464	0
2180.000000	65.418457	0
2240.000000	65.638580	0
2300.000000	65.858734	0
2360.000000	66.065010	0
2430.000000	66.310844	0
2500.000000	66.538109	0
2580.000000	66.696167	0
2650.000000	66.803802	0
2720.000000	66.908607	0
2800.000000	67.025154	0
2900.000000	67.156906	0
3000.000000	67.194260	0
3070.000000	67.190002	0
3150.000000	67.185104	0
3250.000000	67.180016	0
3350.000000	67.169418	0
3450.000000	67.138199	0
3550.000000	67.066429	0
3650.000000	66.992569	0
3750.000000	66.919937	0
3870.000000	66.835175	0
4000.000000	66.745026	0
4120.000000	66.665985	0
4250.000000	66.582535	0
4370.000000	66.509041	0
4500.000000	66.431419	0
4620.000000	66.360466	0
4750.000000	66.250221	0
4870.000000	66.149933	0
5000.000000	66.044029	0
5150.000000	65.925201	0
5300.000000	65.809784	0
5450.000000	65.698349	0
5600.000000	65.565086	0
5800.000000	65.399071	0
6000.000000	65.238510	0
6150.000000	65.125458	0
6300.000000	65.000671	0
6500.000000	64.703331	0
6700.000000	64.398354	0
6900.000000	64.113113	0
7100.000000	63.826015	0
7300.000000	63.546883	0
7500.000000	63.234535	0
7750.000000	62.738495	0
8000.000000	62.259876	0
8250.000000	61.795700	0
8500.000000	61.355938	0
8750.000000	60.918030	0
9000.000000	60.464516	0
9250.000000	60.004356	0
9500.000000	59.561016	0
9750.000000	59.128143	0
10000.000000	58.710709	0
10300.000000	58.219551	0
10600.000000	57.749062	0
10900.000000	57.295334	0
11200.000000	56.847759	0
11500.000000	56.423641	0
11800.000000	55.998837	0
12200.000000	55.447990	0
12500.000000	55.012627	0
12800.000000	54.583607	0
13200.000000	54.026962	0
13600.000000	53.476109	0
14000.000000	52.952538	0
14500.000000	52.300480	0
15000.000000	51.612068	0
15500.000000	50.938599	0
16000.000000	50.292107	0
16500.000000	49.672478	0
17000.000000	49.064491	0
17500.000000	48.255898	0
18000.000000	47.463215	0
18500.000000	46.681660	0
19000.000000	45.931732	0
19500.000000	45.201187	0
